atomic number =   1
effective nuclear charge =   1
electron count =   0
net charge =   1
basis set = none
exchange correlation functional = none
cutoff radius (picometer) = 500
number of shells =  100
prepared by = Thomas A. Manz
prepared date = 02-23-10
magnetization = 0
density in atomic units:
 0.00e+000
 0.00e+000
 0.00e+000
 0.00e+000
 0.00e+000
 0.00e+000
 0.00e+000
 0.00e+000
 0.00e+000
 0.00e+000
 0.00e+000
 0.00e+000
 0.00e+000
 0.00e+000
 0.00e+000
 0.00e+000
 0.00e+000
 0.00e+000
 0.00e+000
 0.00e+000
 0.00e+000
 0.00e+000
 0.00e+000
 0.00e+000
 0.00e+000
 0.00e+000
 0.00e+000
 0.00e+000
 0.00e+000
 0.00e+000
 0.00e+000
 0.00e+000
 0.00e+000
 0.00e+000
 0.00e+000
 0.00e+000
 0.00e+000
 0.00e+000
 0.00e+000
 0.00e+000
 0.00e+000
 0.00e+000
 0.00e+000
 0.00e+000
 0.00e+000
 0.00e+000
 0.00e+000
 0.00e+000
 0.00e+000
 0.00e+000
 0.00e+000
 0.00e+000
 0.00e+000
 0.00e+000
 0.00e+000
 0.00e+000
 0.00e+000
 0.00e+000
 0.00e+000
 0.00e+000
 0.00e+000
 0.00e+000
 0.00e+000
 0.00e+000
 0.00e+000
 0.00e+000
 0.00e+000
 0.00e+000
 0.00e+000
 0.00e+000
 0.00e+000
 0.00e+000
 0.00e+000
 0.00e+000
 0.00e+000
 0.00e+000
 0.00e+000
 0.00e+000
 0.00e+000
 0.00e+000
 0.00e+000
 0.00e+000
 0.00e+000
 0.00e+000
 0.00e+000
 0.00e+000
 0.00e+000
 0.00e+000
 0.00e+000
 0.00e+000
 0.00e+000
 0.00e+000
 0.00e+000
 0.00e+000
 0.00e+000
 0.00e+000
 0.00e+000
 0.00e+000
 0.00e+000
 0.00e+000
atomic number =    1
effective nuclear charge =    1
electron count =    1
net charge =    0
basis set = approximate basis set limit (UGBS)      
exchange correlation functional = PW91PW91            
cutoff radius (picometer) =  500
number of shells =  100
prepared by = Thomas A. Manz      
prepared date = April 2010          
magnetization =    1
density in atomic units:
0.33218801E+00
0.24752077E+00
0.20178153E+00
0.16355556E+00
0.13380662E+00
0.11188311E+00
0.92612639E-01
0.75820498E-01
0.62635198E-01
0.51600505E-01
0.42482480E-01
0.35307042E-01
0.29136915E-01
0.23937864E-01
0.19901127E-01
0.16569830E-01
0.13685126E-01
0.11355352E-01
0.94248224E-02
0.77838926E-02
0.64591537E-02
0.53845607E-02
0.44701141E-02
0.37101731E-02
0.30908627E-02
0.25727584E-02
0.21415413E-02
0.17895942E-02
0.14922776E-02
0.12471513E-02
0.10454828E-02
0.87485363E-03
0.73416677E-03
0.61738730E-03
0.51956496E-03
0.43683016E-03
0.36732585E-03
0.30921068E-03
0.26113758E-03
0.22036598E-03
0.18605284E-03
0.15719721E-03
0.13273442E-03
0.11253689E-03
0.95389878E-04
0.80530837E-04
0.68123722E-04
0.57847774E-04
0.49012870E-04
0.41530700E-04
0.35182653E-04
0.29775456E-04
0.25263180E-04
0.21465283E-04
0.18227751E-04
0.15467087E-04
0.13093866E-04
0.11071513E-04
0.93703211E-05
0.79396204E-05
0.67267738E-05
0.57001025E-05
0.48245438E-05
0.40709897E-05
0.34210316E-05
0.28744007E-05
0.24150963E-05
0.20302941E-05
0.17161715E-05
0.14508610E-05
0.12289806E-05
0.10414770E-05
0.88184493E-06
0.74603167E-06
0.63130602E-06
0.53382593E-06
0.45079287E-06
0.38119362E-06
0.32219512E-06
0.27269974E-06
0.23020428E-06
0.19440363E-06
0.16380885E-06
0.13813970E-06
0.11654722E-06
0.98681177E-07
0.83337333E-07
0.70270680E-07
0.59390182E-07
0.49901015E-07
0.42161446E-07
0.35585646E-07
0.29854601E-07
0.25211842E-07
0.21233783E-07
0.17827727E-07
0.15029380E-07
0.12646592E-07
0.10634324E-07
0.89287253E-08
atomic number =    1
effective nuclear charge =    1
electron count =    2
net charge =   -1
basis set = approximate basis set limit (UGBS)      
exchange correlation functional = PW91PW91            
cutoff radius (picometer) =  500
number of shells =  100
prepared by = Thomas A. Manz      
prepared date = July 2010           
magnetization =    0
density in atomic units:
0.39986801E+00
0.29933906E+00
0.24574412E+00
0.20132622E+00
0.16694957E+00
0.14166360E+00
0.11943749E+00
0.10002555E+00
0.84697150E-01
0.71747638E-01
0.60915638E-01
0.52262776E-01
0.44689342E-01
0.38174972E-01
0.32996811E-01
0.28609192E-01
0.24695156E-01
0.21426626E-01
0.18615693E-01
0.16128615E-01
0.14031480E-01
0.12251290E-01
0.10663827E-01
0.92768949E-02
0.80878725E-02
0.70413952E-02
0.61242031E-02
0.53363875E-02
0.46365680E-02
0.40303012E-02
0.35071641E-02
0.30435720E-02
0.26440662E-02
0.22978862E-02
0.19959605E-02
0.17306235E-02
0.14992862E-02
0.12991377E-02
0.11280504E-02
0.97825797E-03
0.84851921E-03
0.73621300E-03
0.63841330E-03
0.55567484E-03
0.48360007E-03
0.41955136E-03
0.36476221E-03
0.31821750E-03
0.27721876E-03
0.24164400E-03
0.21076019E-03
0.18375272E-03
0.16058392E-03
0.14057779E-03
0.12304142E-03
0.10769334E-03
0.94208342E-04
0.82456005E-04
0.72230621E-04
0.63330226E-04
0.55515364E-04
0.48655049E-04
0.42664116E-04
0.37389214E-04
0.32744229E-04
0.28728282E-04
0.25204907E-04
0.22070981E-04
0.19318548E-04
0.16897708E-04
0.14800612E-04
0.12966113E-04
0.11351095E-04
0.99429180E-05
0.86812952E-05
0.75749340E-05
0.66067473E-05
0.57583811E-05
0.50179633E-05
0.43647719E-05
0.37899920E-05
0.32852390E-05
0.28463885E-05
0.24645346E-05
0.21357441E-05
0.18497947E-05
0.16017733E-05
0.13857328E-05
0.12017776E-05
0.10402742E-05
0.90132113E-06
0.77982025E-06
0.67372429E-06
0.58228704E-06
0.50263480E-06
0.43329055E-06
0.37357069E-06
0.32150552E-06
0.27629483E-06
0.23738650E-06
atomic number =    1
effective nuclear charge =    1
electron count =    3
net charge =   -2
basis set = approximate basis set limit (UGBS)      
exchange correlation functional = PW91PW91            
cutoff radius (picometer) =  500
number of shells =  100
prepared by = Thomas A. Manz      
prepared date = April 2010          
magnetization =    1
density in atomic units:
0.39048201E+00
0.29221472E+00
0.23982432E+00
0.19641873E+00
0.16273712E+00
0.13811111E+00
0.11642183E+00
0.97376332E-01
0.82332090E-01
0.69688231E-01
0.59172459E-01
0.50795842E-01
0.43455619E-01
0.37120089E-01
0.32067478E-01
0.27781041E-01
0.23964625E-01
0.20793295E-01
0.18085923E-01
0.15710453E-01
0.13724314E-01
0.12049728E-01
0.10563374E-01
0.92678824E-02
0.81565417E-02
0.71746497E-02
0.63094702E-02
0.55607199E-02
0.48897183E-02
0.43032742E-02
0.37923881E-02
0.33355963E-02
0.29383716E-02
0.25915289E-02
0.22869406E-02
0.20175544E-02
0.17813304E-02
0.15760779E-02
0.13998399E-02
0.12452110E-02
0.11107946E-02
0.99430815E-03
0.89281431E-03
0.80692192E-03
0.73220237E-03
0.66596462E-03
0.60951128E-03
0.56176668E-03
0.52004930E-03
0.48424586E-03
0.45355665E-03
0.42719481E-03
0.40508306E-03
0.38648301E-03
0.37069464E-03
0.35738389E-03
0.34618942E-03
0.33692544E-03
0.32934491E-03
0.32317449E-03
0.31815816E-03
0.31409538E-03
0.31082827E-03
0.30816288E-03
0.30599546E-03
0.30416594E-03
0.30259383E-03
0.30102595E-03
0.29954597E-03
0.29795253E-03
0.29622216E-03
0.29432465E-03
0.29210877E-03
0.28966132E-03
0.28682366E-03
0.28364491E-03
0.28009032E-03
0.27614820E-03
0.27181560E-03
0.26713929E-03
0.26203642E-03
0.25657826E-03
0.25074210E-03
0.24460099E-03
0.23820612E-03
0.23161477E-03
0.22474684E-03
0.21771489E-03
0.21048351E-03
0.20305198E-03
0.19561865E-03
0.18808023E-03
0.18044819E-03
0.17289772E-03
0.16534979E-03
0.15785822E-03
0.15049988E-03
0.14320308E-03
0.13599507E-03
0.12898904E-03
