atomic number =    7
effective nuclear charge =    7
electron count =    1
net charge =    6
basis set = approximate basis set limit (UGBS)      
exchange correlation functional = PW91PW91            
cutoff radius (picometer) =  500
number of shells =  100
prepared by = Thomas A. Manz      
prepared date = July 2010           
magnetization =    1
density in atomic units:
0.11323500E+03
0.16106750E+02
0.39814186E+01
0.99300182E+00
0.25095090E+00
0.76027729E-01
0.22096515E-01
0.58507356E-02
0.16031461E-02
0.44301769E-03
0.11779273E-03
0.32934888E-04
0.89113728E-05
0.22496456E-05
0.57669894E-06
0.20457077E-06
0.11831620E-06
0.11060857E-06
0.60340419E-07
0.48547150E-07
0.34406636E-07
0.30345124E-07
0.21171859E-07
0.17076205E-07
0.11684651E-07
0.99307655E-08
0.63705761E-08
0.45965525E-08
0.30551888E-08
0.21885649E-08
0.14953938E-08
0.92167374E-09
0.57005434E-09
0.35839065E-09
0.22518783E-09
0.14058438E-09
0.73835708E-10
0.44872259E-10
0.26212166E-10
0.14552104E-10
0.86068713E-11
0.43949722E-11
0.22980970E-11
0.13249550E-11
0.66019992E-12
0.36835547E-12
0.18730923E-12
0.90936339E-13
0.46227538E-13
0.23061693E-13
0.11386308E-13
0.59326387E-14
0.27472582E-14
0.12454092E-14
0.63449893E-15
0.27557923E-15
0.14231265E-15
0.59164206E-16
0.28076373E-16
0.12606103E-16
0.57360124E-17
0.23311954E-17
0.10126989E-17
0.41120361E-18
0.16612343E-18
0.68526815E-19
0.26404049E-19
0.95744031E-20
0.38984170E-20
0.14123054E-20
0.53297573E-21
0.21849471E-21
0.76110884E-22
0.28459931E-22
0.10862268E-22
0.35156418E-23
0.12986482E-23
0.44496178E-24
0.16060037E-24
0.55745934E-25
0.17819017E-25
0.65274303E-26
0.21372574E-26
0.63356696E-27
0.19726518E-27
0.70475603E-28
0.20708441E-28
0.61871989E-29
0.19420244E-29
0.54053161E-30
0.16410919E-30
0.45748965E-31
0.15243026E-31
0.22023275E-31
0.61096062E-32
0.16432998E-32
0.45500953E-33
0.12677740E-33
0.32873684E-34
0.84250559E-35
atomic number =    7
effective nuclear charge =    7
electron count =    2
net charge =    5
basis set = approximate basis set limit (UGBS)      
exchange correlation functional = PW91PW91            
cutoff radius (picometer) =  500
number of shells =  100
prepared by = Thomas A. Manz      
prepared date = July 2010           
magnetization =    0
density in atomic units:
0.20562601E+03
0.30204390E+02
0.79179292E+01
0.21303651E+01
0.58890033E+00
0.19380228E+00
0.61556838E-01
0.18038219E-01
0.54864362E-02
0.16812698E-02
0.49907219E-03
0.15553090E-03
0.46992187E-04
0.13467957E-04
0.40597461E-05
0.12644470E-05
0.37044467E-06
0.14189568E-06
0.10819726E-06
0.68250493E-07
0.41708759E-07
0.33749803E-07
0.22906651E-07
0.18145066E-07
0.12385137E-07
0.10421036E-07
0.66833201E-08
0.48088027E-08
0.31894245E-08
0.22770204E-08
0.15527620E-08
0.95597186E-09
0.59057953E-09
0.37081874E-09
0.23274874E-09
0.14516807E-09
0.76236538E-10
0.46288216E-10
0.27021954E-10
0.14995699E-10
0.88638376E-11
0.45254247E-11
0.23657324E-11
0.13634091E-11
0.67925591E-12
0.37886488E-12
0.19262161E-12
0.93505790E-13
0.47526134E-13
0.23706646E-13
0.11703455E-13
0.60970372E-14
0.28231739E-14
0.12797741E-14
0.65195353E-15
0.28315231E-15
0.14621373E-15
0.60784917E-16
0.28844334E-16
0.12950568E-16
0.58926200E-17
0.23948064E-17
0.10403189E-17
0.42241578E-18
0.17065183E-18
0.70394259E-19
0.27123485E-19
0.98352647E-20
0.40045877E-20
0.14507630E-20
0.54748623E-21
0.22444398E-21
0.78183323E-22
0.29234914E-22
0.11158022E-22
0.36113634E-23
0.13340068E-23
0.45707577E-24
0.16497297E-24
0.57263660E-25
0.18304155E-25
0.67051390E-26
0.21954463E-26
0.65081549E-27
0.20263573E-27
0.72394214E-28
0.21272214E-28
0.63556516E-29
0.19948948E-29
0.55524725E-30
0.16857701E-30
0.46994430E-31
0.15385152E-31
0.22622853E-31
0.62759335E-32
0.16880365E-32
0.46739749E-33
0.13022867E-33
0.33768678E-34
0.86544243E-35
atomic number =    7
effective nuclear charge =    7
electron count =    3
net charge =    4
basis set = approximate basis set limit (UGBS)      
exchange correlation functional = PW91PW91            
cutoff radius (picometer) =  500
number of shells =  100
prepared by = Thomas A. Manz      
prepared date = July 2010           
magnetization =    1
density in atomic units:
0.21190601E+03
0.30927418E+02
0.79948111E+01
0.21463590E+01
0.65238881E+00
0.29572380E+00
0.18185735E+00
0.13782209E+00
0.11317997E+00
0.91854453E-01
0.72526343E-01
0.56540806E-01
0.42853873E-01
0.31853057E-01
0.23949599E-01
0.18020242E-01
0.13395964E-01
0.10051638E-01
0.75711333E-02
0.56770928E-02
0.42991997E-02
0.32866485E-02
0.25020167E-02
0.19068855E-02
0.14628590E-02
0.11218518E-02
0.86070754E-03
0.66435739E-03
0.51124941E-03
0.39463228E-03
0.30592649E-03
0.23641747E-03
0.18335844E-03
0.14254727E-03
0.11086559E-03
0.86059263E-04
0.66788984E-04
0.51889394E-04
0.40457577E-04
0.31492680E-04
0.24517434E-04
0.19112638E-04
0.14865952E-04
0.11635409E-04
0.91079173E-05
0.70917636E-05
0.55422079E-05
0.43435643E-05
0.33826418E-05
0.26317855E-05
0.20286291E-05
0.15667296E-05
0.12227219E-05
0.95319677E-06
0.74198670E-06
0.57561874E-06
0.44549762E-06
0.34412321E-06
0.26518538E-06
0.20409978E-06
0.15705785E-06
0.11992290E-06
0.91612513E-07
0.69884599E-07
0.52536667E-07
0.39996962E-07
0.30134228E-07
0.22378375E-07
0.16672660E-07
0.12197949E-07
0.88595815E-08
0.76131057E-08
0.88295193E-08
0.68663764E-08
0.52914810E-08
0.40885615E-08
0.31714280E-08
0.24571585E-08
0.18975261E-08
0.14608770E-08
0.11433640E-08
0.88229413E-09
0.68537381E-09
0.53310467E-09
0.41592085E-09
0.32637570E-09
0.25718472E-09
0.20305307E-09
0.16021053E-09
0.12725386E-09
0.10159087E-09
0.81169911E-10
0.65392365E-10
0.52706232E-10
0.42872570E-10
0.34889484E-10
0.28413775E-10
0.23242866E-10
0.19083317E-10
0.15640725E-10
atomic number =    7
effective nuclear charge =    7
electron count =    4
net charge =    3
basis set = approximate basis set limit (UGBS)      
exchange correlation functional = PW91PW91            
cutoff radius (picometer) =  500
number of shells =  100
prepared by = Thomas A. Manz      
prepared date = July 2010           
magnetization =    0
density in atomic units:
0.21698599E+03
0.31521881E+02
0.80619650E+01
0.21580672E+01
0.69999343E+00
0.37489203E+00
0.27814248E+00
0.23674096E+00
0.20504449E+00
0.17161565E+00
0.13880181E+00
0.11050703E+00
0.85538439E-01
0.64928867E-01
0.49737960E-01
0.38063604E-01
0.28751712E-01
0.21873958E-01
0.16675146E-01
0.12640268E-01
0.96635604E-02
0.74496767E-02
0.57169772E-02
0.43907631E-02
0.33932524E-02
0.26213899E-02
0.20259041E-02
0.15749682E-02
0.12208732E-02
0.94931672E-03
0.74128970E-03
0.57718629E-03
0.45104968E-03
0.35335097E-03
0.27688441E-03
0.21659846E-03
0.16937063E-03
0.13257140E-03
0.10419993E-03
0.81753409E-04
0.64122054E-04
0.50314538E-04
0.39417835E-04
0.31046406E-04
0.24425664E-04
0.19072024E-04
0.14912575E-04
0.11731092E-04
0.92088949E-05
0.72370312E-05
0.56865965E-05
0.44458752E-05
0.34891862E-05
0.27463825E-05
0.21591559E-05
0.16776721E-05
0.13096561E-05
0.10228231E-05
0.79871808E-06
0.62367803E-06
0.48530524E-06
0.37786799E-06
0.29339111E-06
0.22733930E-06
0.17623813E-06
0.13622032E-06
0.10507592E-06
0.80731304E-07
0.61845604E-07
0.47092094E-07
0.35990578E-07
0.27415709E-07
0.20768489E-07
0.15663314E-07
0.14130274E-07
0.12777615E-07
0.99296678E-08
0.77450295E-08
0.60428422E-08
0.47369717E-08
0.37058094E-08
0.29079636E-08
0.22839077E-08
0.18001031E-08
0.14289157E-08
0.11392661E-08
0.91130165E-09
0.73304146E-09
0.59067945E-09
0.47796772E-09
0.38947326E-09
0.31726202E-09
0.26026861E-09
0.21386486E-09
0.17619076E-09
0.14572507E-09
0.12015672E-09
0.99564197E-10
0.82525826E-10
0.68171448E-10
atomic number =    7
effective nuclear charge =    7
electron count =    5
net charge =    2
basis set = approximate basis set limit (UGBS)      
exchange correlation functional = PW91PW91            
cutoff radius (picometer) =  500
number of shells =  100
prepared by = Thomas A. Manz      
prepared date = July 2010           
magnetization =    1
density in atomic units:
0.21550301E+03
0.31437456E+02
0.81822672E+01
0.23133879E+01
0.84344107E+00
0.49902055E+00
0.38223299E+00
0.32245898E+00
0.27608147E+00
0.23029718E+00
0.18721569E+00
0.15071303E+00
0.11855170E+00
0.91768503E-01
0.71723089E-01
0.56029994E-01
0.43255195E-01
0.33618186E-01
0.26178250E-01
0.20282228E-01
0.15842138E-01
0.12472150E-01
0.97820535E-02
0.76816375E-02
0.60696965E-02
0.47973767E-02
0.37960403E-02
0.30224239E-02
0.24025373E-02
0.19171931E-02
0.15373625E-02
0.12313197E-02
0.99073048E-03
0.80007134E-03
0.64732262E-03
0.52379095E-03
0.42439890E-03
0.34482003E-03
0.28163573E-03
0.23006968E-03
0.18828787E-03
0.15441611E-03
0.12669849E-03
0.10456469E-03
0.86359469E-04
0.71047289E-04
0.58617337E-04
0.48624272E-04
0.40278130E-04
0.33405726E-04
0.27737276E-04
0.22996994E-04
0.19129375E-04
0.15943140E-04
0.13277897E-04
0.11046176E-04
0.91605898E-05
0.77290497E-05
0.65258382E-05
0.55258479E-05
0.46701221E-05
0.39377278E-05
0.33268261E-05
0.28125007E-05
0.23759310E-05
0.20093280E-05
0.16965917E-05
0.14285737E-05
0.12073392E-05
0.10090482E-05
0.85262445E-06
0.71603864E-06
0.59994437E-06
0.50512631E-06
0.42164979E-06
0.35226361E-06
0.29568986E-06
0.24506301E-06
0.20402221E-06
0.16979686E-06
0.14079582E-06
0.11648502E-06
0.95882619E-07
0.79072784E-07
0.65157302E-07
0.53526747E-07
0.44084214E-07
0.36334530E-07
0.29648662E-07
0.24242025E-07
0.19875413E-07
0.16163037E-07
0.13147210E-07
0.10676239E-07
0.86754124E-08
0.70255712E-08
0.56990830E-08
0.46177413E-08
0.37258183E-08
0.30021583E-08
atomic number =    7
effective nuclear charge =    7
electron count =    6
net charge =    1
basis set = approximate basis set limit (UGBS)      
exchange correlation functional = PW91PW91            
cutoff radius (picometer) =  500
number of shells =  100
prepared by = Thomas A. Manz      
prepared date = July 2010           
magnetization =    2
density in atomic units:
0.21438400E+03
0.31372118E+02
0.82719564E+01
0.24317229E+01
0.95532554E+00
0.59842497E+00
0.46849236E+00
0.39624804E+00
0.33958030E+00
0.28477407E+00
0.23377621E+00
0.19060570E+00
0.15225635E+00
0.11987385E+00
0.95215350E-01
0.75541966E-01
0.59221245E-01
0.46675529E-01
0.36815923E-01
0.28875364E-01
0.22804612E-01
0.18135466E-01
0.14362279E-01
0.11382233E-01
0.90714153E-02
0.72295754E-02
0.57668132E-02
0.46266811E-02
0.37055563E-02
0.29785442E-02
0.24054504E-02
0.19400457E-02
0.15715323E-02
0.12773618E-02
0.10401338E-02
0.84691838E-03
0.69041271E-03
0.56422927E-03
0.46335737E-03
0.38067572E-03
0.31329304E-03
0.25830820E-03
0.21301134E-03
0.17669621E-03
0.14666266E-03
0.12126662E-03
0.10054532E-03
0.83778024E-04
0.69657355E-04
0.57971960E-04
0.48277441E-04
0.40148461E-04
0.33462115E-04
0.27921134E-04
0.23279230E-04
0.19388210E-04
0.16108163E-04
0.13360476E-04
0.11083751E-04
0.91973561E-05
0.76277574E-05
0.63144157E-05
0.52169353E-05
0.43070618E-05
0.35493697E-05
0.29458720E-05
0.24642807E-05
0.20485984E-05
0.17023887E-05
0.14105558E-05
0.11713521E-05
0.97273971E-06
0.80792023E-06
0.66907933E-06
0.55205032E-06
0.45531300E-06
0.37451824E-06
0.30728378E-06
0.25214911E-06
0.20742041E-06
0.16924908E-06
0.13833430E-06
0.11280969E-06
0.91768996E-07
0.74580484E-07
0.60675440E-07
0.49019857E-07
0.39867903E-07
0.32145881E-07
0.25884230E-07
0.20865302E-07
0.16766730E-07
0.13461894E-07
0.10778064E-07
0.86272474E-08
0.68924808E-08
0.54878413E-08
0.43563952E-08
0.34732726E-08
0.27420328E-08
atomic number =    7
effective nuclear charge =    7
electron count =    7
net charge =    0
basis set = approximate basis set limit (UGBS)      
exchange correlation functional = PW91PW91            
cutoff radius (picometer) =  500
number of shells =  100
prepared by = Thomas A. Manz      
prepared date = July 2010           
magnetization =    3
density in atomic units:
0.21347301E+03
0.31317078E+02
0.83432922E+01
0.25277760E+01
0.10480258E+01
0.68275154E+00
0.54372513E+00
0.46272096E+00
0.39859197E+00
0.33695790E+00
0.27969420E+00
0.23093629E+00
0.18711062E+00
0.14950827E+00
0.12034763E+00
0.96641898E-01
0.76614708E-01
0.60955178E-01
0.48458893E-01
0.38259964E-01
0.30375572E-01
0.24254685E-01
0.19271981E-01
0.15312819E-01
0.12227549E-01
0.97588859E-02
0.77921096E-02
0.62553445E-02
0.50109685E-02
0.40272316E-02
0.32507330E-02
0.26195899E-02
0.21194068E-02
0.17200933E-02
0.13980193E-02
0.11358397E-02
0.92363916E-03
0.75271836E-03
0.61627518E-03
0.50452963E-03
0.41364683E-03
0.33972887E-03
0.27905934E-03
0.23052713E-03
0.19050005E-03
0.15679239E-03
0.12941672E-03
0.10734708E-03
0.88845954E-04
0.73573414E-04
0.60944370E-04
0.50405695E-04
0.41812087E-04
0.34742061E-04
0.28841119E-04
0.23908193E-04
0.19743518E-04
0.16284226E-04
0.13439313E-04
0.11099578E-04
0.91587326E-05
0.75515359E-05
0.62303525E-05
0.51237066E-05
0.42003844E-05
0.34466022E-05
0.28183981E-05
0.22982206E-05
0.18723229E-05
0.15278497E-05
0.12536640E-05
0.10299159E-05
0.84324790E-06
0.69009729E-06
0.56354526E-06
0.45923781E-06
0.37458113E-06
0.30380960E-06
0.24714350E-06
0.20109913E-06
0.16273772E-06
0.13168557E-06
0.10642318E-06
0.85640011E-07
0.68936551E-07
0.55748355E-07
0.44778570E-07
0.36053738E-07
0.28873696E-07
0.23107635E-07
0.18469342E-07
0.14761960E-07
0.11745668E-07
0.93607033E-08
0.74498057E-08
0.58971703E-08
0.46813962E-08
0.37060075E-08
0.29267182E-08
0.23036348E-08
atomic number =    7
effective nuclear charge =    7
electron count =    8
net charge =   -1
basis set = approximate basis set limit (UGBS)      
exchange correlation functional = PW91PW91            
cutoff radius (picometer) =  500
number of shells =  100
prepared by = Thomas A. Manz      
prepared date = July 2010           
magnetization =    2
density in atomic units:
0.21276401E+03
0.31243258E+02
0.83486795E+01
0.25436733E+01
0.10596483E+01
0.69019806E+00
0.54888546E+00
0.46755567E+00
0.40430504E+00
0.34404573E+00
0.28817350E+00
0.24051547E+00
0.19751477E+00
0.16041692E+00
0.13143504E+00
0.10766824E+00
0.87372728E-01
0.71295813E-01
0.58268625E-01
0.47446523E-01
0.38909234E-01
0.32129779E-01
0.26472101E-01
0.21851234E-01
0.18140787E-01
0.15075590E-01
0.12548773E-01
0.10502120E-01
0.87815588E-02
0.73673823E-02
0.62044794E-02
0.52208160E-02
0.44073686E-02
0.37301469E-02
0.31607540E-02
0.26768683E-02
0.22682901E-02
0.19252194E-02
0.16397211E-02
0.13960353E-02
0.11899800E-02
0.10154383E-02
0.86661906E-03
0.74326072E-03
0.63767069E-03
0.54553972E-03
0.46807341E-03
0.40330424E-03
0.34715250E-03
0.29912966E-03
0.25804312E-03
0.22262335E-03
0.19266921E-03
0.16711125E-03
0.14502772E-03
0.12593772E-03
0.10935184E-03
0.95052295E-04
0.82712402E-04
0.72094605E-04
0.62863626E-04
0.54866403E-04
0.47945392E-04
0.41903622E-04
0.36630663E-04
0.32081512E-04
0.28093196E-04
0.24576675E-04
0.21508185E-04
0.18820079E-04
0.16494498E-04
0.14459855E-04
0.12656127E-04
0.11087666E-04
0.96975782E-05
0.84810881E-05
0.74196928E-05
0.64875489E-05
0.56731355E-05
0.49593500E-05
0.43575142E-05
0.38385133E-05
0.33743886E-05
0.29727073E-05
0.26202977E-05
0.23118273E-05
0.20368229E-05
0.17966465E-05
0.15809972E-05
0.13891921E-05
0.12232357E-05
0.10766721E-05
0.94358626E-06
0.82746965E-06
0.72688272E-06
0.63562800E-06
0.55723950E-06
0.48700389E-06
0.42601903E-06
0.37219365E-06
atomic number =    7
effective nuclear charge =    7
electron count =    9
net charge =   -2
basis set = approximate basis set limit (UGBS)      
exchange correlation functional = PW91PW91            
cutoff radius (picometer) =  500
number of shells =  100
prepared by = Thomas A. Manz      
prepared date = July 2010           
magnetization =    1
density in atomic units:
0.21227499E+03
0.31190144E+02
0.83493891E+01
0.25515373E+01
0.10648251E+01
0.69274461E+00
0.55009586E+00
0.46886301E+00
0.40655529E+00
0.34758386E+00
0.29301944E+00
0.24642812E+00
0.20430999E+00
0.16786794E+00
0.13928160E+00
0.11572952E+00
0.95490761E-01
0.79335570E-01
0.66123769E-01
0.55022124E-01
0.46150353E-01
0.38994808E-01
0.32922521E-01
0.27868871E-01
0.23724090E-01
0.20222977E-01
0.17267253E-01
0.14813454E-01
0.12696534E-01
0.10910749E-01
0.94008353E-02
0.80917841E-02
0.69787474E-02
0.60282652E-02
0.52096238E-02
0.44958554E-02
0.38791003E-02
0.33493633E-02
0.28988919E-02
0.25063092E-02
0.21684736E-02
0.18765850E-02
0.16234602E-02
0.14105199E-02
0.12252085E-02
0.10612768E-02
0.92157425E-03
0.80305466E-03
0.69914415E-03
0.60927455E-03
0.53152867E-03
0.46379556E-03
0.40589523E-03
0.35600847E-03
0.31241815E-03
0.27432721E-03
0.24089999E-03
0.21179135E-03
0.18642211E-03
0.16433540E-03
0.14492759E-03
0.12791256E-03
0.11304175E-03
0.99917204E-04
0.88340581E-04
0.78268313E-04
0.69357338E-04
0.61392275E-04
0.54350992E-04
0.48108235E-04
0.42653566E-04
0.37830636E-04
0.33540069E-04
0.29745943E-04
0.26349609E-04
0.23338192E-04
0.20668740E-04
0.18295381E-04
0.16192924E-04
0.14336695E-04
0.12674187E-04
0.11184105E-04
0.98536502E-05
0.86804694E-05
0.76519973E-05
0.67428477E-05
0.59400236E-05
0.52373548E-05
0.46555519E-05
0.41277331E-05
0.36658491E-05
0.32564233E-05
0.28836348E-05
0.25544934E-05
0.22627255E-05
0.19991023E-05
0.17681188E-05
0.15647604E-05
0.13791825E-05
0.12175524E-05
atomic number =    7
effective nuclear charge =    7
electron count =   10
net charge =   -3
basis set = approximate basis set limit (UGBS)      
exchange correlation functional = PW91PW91            
cutoff radius (picometer) =  500
number of shells =  100
prepared by = Thomas A. Manz      
prepared date = July 2010           
magnetization =    0
density in atomic units:
0.21188901E+03
0.31147066E+02
0.83481789E+01
0.25558529E+01
0.10671058E+01
0.69298899E+00
0.54942942E+00
0.46832904E+00
0.40684861E+00
0.34904793E+00
0.29563916E+00
0.25006181E+00
0.20881401E+00
0.17306574E+00
0.14497361E+00
0.12175636E+00
0.10174232E+00
0.85695244E-01
0.72493143E-01
0.61324898E-01
0.52318525E-01
0.44982448E-01
0.38682409E-01
0.33362176E-01
0.28932899E-01
0.25126828E-01
0.21854928E-01
0.19083759E-01
0.16645296E-01
0.14544998E-01
0.12734909E-01
0.11128992E-01
0.97390888E-02
0.85283043E-02
0.74645057E-02
0.65212450E-02
0.56917011E-02
0.49674381E-02
0.43423353E-02
0.37905497E-02
0.33081584E-02
0.28872241E-02
0.25180033E-02
0.22034522E-02
0.19276745E-02
0.16812803E-02
0.14693119E-02
0.12884730E-02
0.11283588E-02
0.98901661E-03
0.86759019E-03
0.76107873E-03
0.66947006E-03
0.59011840E-03
0.52039709E-03
0.45913912E-03
0.40509916E-03
0.35785272E-03
0.31653320E-03
0.28039128E-03
0.24848589E-03
0.22034101E-03
0.19564570E-03
0.17377315E-03
0.15439268E-03
0.13747155E-03
0.12243667E-03
0.10893633E-03
0.96968673E-04
0.86295368E-04
0.76924007E-04
0.68599315E-04
0.61163511E-04
0.54581986E-04
0.48666017E-04
0.43392138E-04
0.38697268E-04
0.34480738E-04
0.30734616E-04
0.27399212E-04
0.24397379E-04
0.21702668E-04
0.19294226E-04
0.17142445E-04
0.15237881E-04
0.13541613E-04
0.12032022E-04
0.10684267E-04
0.94807165E-05
0.84000385E-05
0.74404138E-05
0.65815798E-05
0.58192782E-05
0.51472543E-05
0.45517545E-05
0.40248697E-05
0.35591368E-05
0.31438706E-05
0.27760145E-05
0.24505623E-05
atomic number =    7
effective nuclear charge =    7
electron count =   11
net charge =   -4
basis set = approximate basis set limit (UGBS)      
exchange correlation functional = PW91PW91            
cutoff radius (picometer) =  500
number of shells =  100
prepared by = Thomas A. Manz      
prepared date = July 2010           
magnetization =    1
density in atomic units:
0.21251401E+03
0.31209766E+02
0.83391180E+01
0.25366654E+01
0.10511920E+01
0.68159240E+00
0.54154181E+00
0.46215439E+00
0.40101877E+00
0.34308216E+00
0.28951922E+00
0.24388941E+00
0.20266141E+00
0.16696565E+00
0.13894396E+00
0.11583868E+00
0.96007317E-01
0.80223180E-01
0.67376338E-01
0.56661662E-01
0.48168011E-01
0.41383680E-01
0.35670154E-01
0.30945998E-01
0.27088268E-01
0.23829617E-01
0.21066658E-01
0.18750034E-01
0.16721927E-01
0.14976008E-01
0.13465123E-01
0.12112606E-01
0.10926510E-01
0.98752882E-02
0.89326380E-02
0.80779614E-02
0.73061567E-02
0.66129495E-02
0.59967390E-02
0.54351250E-02
0.49280077E-02
0.44701649E-02
0.40538688E-02
0.36864241E-02
0.33523524E-02
0.30425265E-02
0.27657794E-02
0.25205112E-02
0.22950082E-02
0.20911288E-02
0.19066033E-02
0.17385466E-02
0.15885463E-02
0.14536342E-02
0.13308405E-02
0.12189382E-02
0.11167559E-02
0.10241247E-02
0.94033609E-03
0.86452602E-03
0.79537026E-03
0.73235703E-03
0.67525118E-03
0.62300835E-03
0.57516684E-03
0.53210714E-03
0.49264147E-03
0.45604355E-03
0.42252304E-03
0.39166602E-03
0.36364028E-03
0.33789835E-03
0.31407585E-03
0.29226081E-03
0.27194526E-03
0.25315155E-03
0.23580366E-03
0.21967936E-03
0.20477784E-03
0.19103510E-03
0.17814207E-03
0.16608059E-03
0.15480290E-03
0.14428468E-03
0.13457371E-03
0.12554337E-03
0.11705836E-03
0.10912638E-03
0.10169666E-03
0.94663410E-04
0.88163957E-04
0.82046856E-04
0.76275952E-04
0.70930699E-04
0.65899905E-04
0.61202896E-04
0.56845587E-04
0.52742253E-04
0.48890892E-04
0.45317658E-04
