atomic number =    7
effective nuclear charge =    7
electron count =    2
net charge =    5
basis set = approximate basis set limit (UGBS)      
exchange correlation functional = PW91PW91            
cutoff radius (picometer) =  500
number of shells =  100
prepared by = Thomas A. Manz      
prepared date = July 2010           
net magnetization =    0
density in atomic units:
0.20282623E+03
0.29883007E+02
0.78857007E+01
0.21456599E+01
0.60328430E+00
0.20225224E+00
0.65745115E-01
0.19891271E-01
0.63017942E-02
0.20299400E-02
0.64144336E-03
0.21412408E-03
0.69727270E-04
0.21775832E-04
0.73138403E-05
0.25420516E-05
0.84296227E-06
0.28520452E-06
0.96753993E-07
0.31002870E-07
0.98670272E-08
0.31592560E-08
0.95979424E-09
0.29097108E-09
0.95102523E-10
0.34547063E-10
0.13987448E-10
0.61268217E-11
0.28501602E-11
0.18249317E-11
0.18964736E-11
0.23679895E-11
0.28012440E-11
0.29814270E-11
0.28593644E-11
0.24809215E-11
0.19501816E-11
0.13818624E-11
0.87276692E-12
0.46728284E-12
0.19297591E-12
0.47674097E-13
0.85633947E-14
0.44858103E-13
0.12489535E-12
0.22356056E-12
0.31559409E-12
0.38628990E-12
0.43086398E-12
0.44644735E-12
0.43512860E-12
0.40197094E-12
0.35417163E-12
0.29814213E-12
0.23910382E-12
0.18186437E-12
0.12985790E-12
0.86016365E-13
0.51565150E-13
0.26650104E-13
0.10538284E-13
0.22367921E-14
0.41588574E-15
0.35439223E-14
0.10161083E-13
0.18742017E-13
0.28229467E-13
0.37760905E-13
0.46459588E-13
0.53817610E-13
0.59404237E-13
0.63164284E-13
0.65102295E-13
0.65275957E-13
0.63947078E-13
0.61253296E-13
0.57507886E-13
0.52942957E-13
0.47845185E-13
0.42500888E-13
0.37014794E-13
0.31592330E-13
0.26400379E-13
0.21572945E-13
0.17228616E-13
0.13398613E-13
0.10067010E-13
0.72615127E-14
0.49671410E-14
0.31482294E-14
0.18030454E-14
0.86572474E-15
0.29067746E-15
0.37214657E-16
0.47916713E-16
0.27508605E-15
0.66824203E-15
0.11908055E-14
0.18041992E-14
0.24669288E-14
atomic number =    7
effective nuclear charge =    7
electron count =    4
net charge =    3
basis set = approximate basis set limit (UGBS)      
exchange correlation functional = PW91PW91            
cutoff radius (picometer) =  500
number of shells =  100
prepared by = Thomas A. Manz      
prepared date = July 2010           
net magnetization =    0
density in atomic units:
0.21347237E+03
0.31115469E+02
0.80209570E+01
0.21567092E+01
0.67864054E+00
0.33804879E+00
0.23622087E+00
0.19857067E+00
0.17506190E+00
0.15130411E+00
0.12730557E+00
0.10561115E+00
0.85376337E-01
0.67664459E-01
0.53813718E-01
0.42551454E-01
0.33094849E-01
0.25775723E-01
0.20016450E-01
0.15394730E-01
0.11891888E-01
0.92321159E-02
0.71173133E-02
0.54796040E-02
0.42372765E-02
0.32707099E-02
0.25227810E-02
0.19555949E-02
0.15103688E-02
0.11694088E-02
0.90898830E-03
0.70430565E-03
0.54763688E-03
0.42689082E-03
0.33294634E-03
0.25924193E-03
0.20180315E-03
0.15732809E-03
0.12317667E-03
0.96316107E-04
0.75348711E-04
0.58999274E-04
0.46149667E-04
0.36319281E-04
0.28568116E-04
0.22337452E-04
0.17508961E-04
0.13794352E-04
0.10828669E-04
0.84978110E-05
0.66683206E-05
0.52218275E-05
0.41009721E-05
0.32265677E-05
0.25351030E-05
0.19887204E-05
0.15567175E-05
0.12182945E-05
0.95352681E-06
0.74679190E-06
0.58413548E-06
0.45640451E-06
0.35677903E-06
0.27849219E-06
0.21704884E-06
0.16963897E-06
0.13245663E-06
0.10299615E-06
0.80037466E-07
0.62085711E-07
0.48267349E-07
0.37521538E-07
0.29117802E-07
0.22632953E-07
0.17553116E-07
0.13611307E-07
0.10569041E-07
0.82084588E-08
0.63897443E-08
0.49950644E-08
0.39059476E-08
0.30603007E-08
0.24066646E-08
0.19029147E-08
0.15168301E-08
0.12192120E-08
0.98702135E-09
0.80642831E-09
0.66538275E-09
0.55404048E-09
0.46767623E-09
0.39927023E-09
0.34471209E-09
0.30177119E-09
0.26717492E-09
0.23927271E-09
0.21665175E-09
0.19801792E-09
0.18238756E-09
0.16934806E-09
