atomic number =   16
effective nuclear charge =   16
electron count =    9
net charge =    7
basis set = approximate basis set limit (UGBS)      
exchange correlation functional = PW91PW91            
cutoff radius (picometer) =  500
number of shells =  100
prepared by = Thomas A. Manz      
prepared date = July 2010           
magnetization =    1
density in atomic units:
0.28917200E+04
0.59531860E+02
0.18749414E+02
0.10839457E+02
0.57283912E+01
0.30112915E+01
0.14636217E+01
0.65498745E+00
0.29502237E+00
0.13076328E+00
0.56517668E-01
0.25152165E-01
0.10850400E-01
0.45145033E-02
0.19661221E-02
0.86512283E-03
0.36260983E-03
0.15290998E-03
0.64243184E-04
0.25855123E-04
0.10493453E-04
0.43129407E-05
0.17848978E-05
0.75331189E-06
0.32892859E-06
0.14803342E-06
0.67975137E-07
0.31993935E-07
0.15283778E-07
0.72094588E-08
0.33909457E-08
0.21047266E-08
0.12763661E-08
0.65002892E-09
0.32670300E-09
0.15869774E-09
0.78673047E-10
0.38387207E-10
0.17423493E-10
0.81671579E-11
0.36527218E-11
0.15947803E-11
0.68280776E-12
0.30022106E-12
0.12034999E-12
0.47749971E-13
0.18457456E-13
0.72018502E-14
0.27047291E-14
0.10050694E-14
0.36498933E-15
0.12788707E-15
0.42467327E-16
0.14057294E-16
0.46847734E-17
0.16164151E-17
0.53556600E-18
0.16970677E-18
0.52669524E-19
0.15771969E-19
0.46615250E-20
0.13546196E-20
0.39322416E-21
0.11978982E-21
0.32261909E-22
0.82563673E-23
0.22007486E-23
0.56530172E-24
0.15442090E-24
0.37804584E-25
0.89528348E-26
0.22228255E-26
0.48785616E-27
0.11249312E-27
0.25517675E-28
0.55315104E-29
0.11550776E-29
0.23903285E-30
0.48073481E-31
0.93787669E-32
0.19005424E-32
0.35121312E-33
0.64193115E-34
0.11693198E-34
0.20389084E-35
0.39029718E-36
0.11609095E-36
0.24608569E-37
0.00000000E+00
0.00000000E+00
0.00000000E+00
0.00000000E+00
0.00000000E+00
0.00000000E+00
0.00000000E+00
0.00000000E+00
0.00000000E+00
0.00000000E+00
0.00000000E+00
0.00000000E+00
atomic number =   16
effective nuclear charge =   16
electron count =   10
net charge =    6
basis set = approximate basis set limit (UGBS)      
exchange correlation functional = PW91PW91            
cutoff radius (picometer) =  500
number of shells =  100
prepared by = Thomas A. Manz      
prepared date = July 2010           
magnetization =    0
density in atomic units:
0.28783000E+04
0.61488071E+02
0.20332880E+02
0.11884739E+02
0.64091005E+01
0.34600604E+01
0.17404860E+01
0.81283295E+00
0.38329309E+00
0.17831732E+00
0.81262589E-01
0.38150303E-01
0.17422445E-01
0.77132820E-02
0.35682202E-02
0.16666409E-02
0.74519688E-03
0.33588719E-03
0.15117631E-03
0.65892811E-04
0.29064691E-04
0.13087149E-04
0.57581456E-05
0.25422523E-05
0.11624270E-05
0.53418398E-06
0.24575027E-06
0.11531388E-06
0.54421253E-07
0.25815185E-07
0.12469444E-07
0.70208022E-08
0.38285091E-08
0.20266282E-08
0.10947655E-08
0.58705713E-09
0.31510461E-09
0.17308958E-09
0.96683390E-10
0.51976753E-10
0.26664150E-10
0.13344538E-10
0.77320043E-11
0.40402928E-11
0.20163062E-11
0.96240377E-12
0.43564531E-12
0.20036379E-12
0.90188849E-13
0.39813974E-13
0.17329010E-13
0.71194424E-14
0.29252960E-14
0.11838044E-14
0.46881453E-15
0.18660301E-15
0.72742018E-16
0.26378039E-16
0.98599300E-17
0.35685527E-17
0.12439679E-17
0.43469670E-18
0.14536493E-18
0.49756672E-19
0.24693051E-19
0.12034181E-19
0.58031821E-20
0.25951204E-20
0.11698890E-20
0.53243315E-21
0.28730143E-21
0.12266827E-21
0.51240618E-22
0.19454962E-22
0.74728241E-23
0.26951200E-23
0.11399740E-23
0.53086133E-24
0.20187752E-24
0.67689806E-25
0.24082890E-25
0.81407325E-26
0.25920431E-26
0.86056751E-27
0.26849738E-27
0.85636830E-28
0.27831978E-28
0.86206844E-29
0.26428890E-29
0.84124949E-30
0.24942977E-30
0.67998804E-31
0.19743916E-31
0.55854022E-32
0.26552072E-32
0.92518982E-33
0.24116669E-33
0.64984714E-34
0.17085842E-34
0.43939619E-35
atomic number =   16
effective nuclear charge =   16
electron count =   11
net charge =    5
basis set = approximate basis set limit (UGBS)      
exchange correlation functional = PW91PW91            
cutoff radius (picometer) =  500
number of shells =  100
prepared by = Thomas A. Manz      
prepared date = July 2010           
magnetization =    1
density in atomic units:
0.28903401E+04
0.61413517E+02
0.20429102E+02
0.11982914E+02
0.64460955E+01
0.34684508E+01
0.17476492E+01
0.83308989E+00
0.41771173E+00
0.22286847E+00
0.13044444E+00
0.87201491E-01
0.62983759E-01
0.47766391E-01
0.37719782E-01
0.29991405E-01
0.23507399E-01
0.18401913E-01
0.14309979E-01
0.10987157E-01
0.84569491E-02
0.65394733E-02
0.50247749E-02
0.38622851E-02
0.29888223E-02
0.23145913E-02
0.17957608E-02
0.14032851E-02
0.10948703E-02
0.85764204E-03
0.67503069E-03
0.53002028E-03
0.41766025E-03
0.32983307E-03
0.26046266E-03
0.20521697E-03
0.16151671E-03
0.12714679E-03
0.10039791E-03
0.79102771E-04
0.62290834E-04
0.49052338E-04
0.38553033E-04
0.30449048E-04
0.24011035E-04
0.18803477E-04
0.14754101E-04
0.11626813E-04
0.91164911E-05
0.71481900E-05
0.56013464E-05
0.43737541E-05
0.33998749E-05
0.26499936E-05
0.20915268E-05
0.16504558E-05
0.13014231E-05
0.10285303E-05
0.81378232E-06
0.64473448E-06
0.51126153E-06
0.40498733E-06
0.32206239E-06
0.25593059E-06
0.20380772E-06
0.16242223E-06
0.12993810E-06
0.10358185E-06
0.82509814E-07
0.65665844E-07
0.52687149E-07
0.42095149E-07
0.33617464E-07
0.26977753E-07
0.21578987E-07
0.17236321E-07
0.13806737E-07
0.10999443E-07
0.87990886E-08
0.70255810E-08
0.56220002E-08
0.44626907E-08
0.35479544E-08
0.28187226E-08
0.22418403E-08
0.17806014E-08
0.14095023E-08
0.11185138E-08
0.88092594E-09
0.69740225E-09
0.54822419E-09
0.43151513E-09
0.33807540E-09
0.26490224E-09
0.20728209E-09
0.16184877E-09
0.12624200E-09
0.98258762E-10
0.75949282E-10
0.59058793E-10
atomic number =   16
effective nuclear charge =   16
electron count =   12
net charge =    4
basis set = approximate basis set limit (UGBS)      
exchange correlation functional = PW91PW91            
cutoff radius (picometer) =  500
number of shells =  100
prepared by = Thomas A. Manz      
prepared date = July 2010           
magnetization =    0
density in atomic units:
0.29006101E+04
0.61351013E+02
0.20512121E+02
0.12069097E+02
0.64800806E+01
0.34767399E+01
0.17534047E+01
0.84894103E+00
0.44537395E+00
0.25966910E+00
0.17220911E+00
0.13001004E+00
0.10393972E+00
0.84903061E-01
0.70332378E-01
0.57838794E-01
0.46566512E-01
0.37230153E-01
0.29467341E-01
0.22981854E-01
0.17925374E-01
0.14014918E-01
0.10871526E-01
0.84211444E-02
0.65549728E-02
0.50984095E-02
0.39674193E-02
0.31058984E-02
0.24256238E-02
0.19007771E-02
0.14962431E-02
0.11749193E-02
0.92604733E-03
0.73180307E-03
0.57862169E-03
0.45669783E-03
0.36030330E-03
0.28452926E-03
0.22556681E-03
0.17855209E-03
0.14133255E-03
0.11192288E-03
0.88497763E-04
0.70362912E-04
0.55875738E-04
0.44076838E-04
0.34810873E-04
0.27602035E-04
0.21803404E-04
0.17223410E-04
0.13608625E-04
0.10728187E-04
0.84750327E-05
0.66915577E-05
0.52951409E-05
0.41860235E-05
0.33030715E-05
0.26072648E-05
0.20453349E-05
0.16064567E-05
0.12595509E-05
0.99147201E-06
0.78090375E-06
0.61325346E-06
0.48135598E-06
0.37761507E-06
0.29615023E-06
0.23143204E-06
0.18001647E-06
0.13997247E-06
0.10917363E-06
0.84793314E-07
0.65716733E-07
0.51056052E-07
0.39501316E-07
0.30515118E-07
0.23583484E-07
0.18180613E-07
0.14799962E-07
0.13287230E-07
0.10436922E-07
0.81999154E-08
0.64530283E-08
0.50909517E-08
0.40357468E-08
0.32123739E-08
0.25608380E-08
0.20495894E-08
0.16443020E-08
0.13228069E-08
0.10679230E-08
0.86471647E-09
0.70336803E-09
0.57271571E-09
0.46733145E-09
0.38316603E-09
0.31384786E-09
0.25777397E-09
0.21193870E-09
0.17347104E-09
atomic number =   16
effective nuclear charge =   16
electron count =   13
net charge =    3
basis set = approximate basis set limit (UGBS)      
exchange correlation functional = PW91PW91            
cutoff radius (picometer) =  500
number of shells =  100
prepared by = Thomas A. Manz      
prepared date = July 2010           
magnetization =    1
density in atomic units:
0.28983601E+04
0.61528557E+02
0.20609802E+02
0.12101208E+02
0.64882603E+01
0.34795918E+01
0.17576604E+01
0.85779208E+00
0.45921189E+00
0.27787787E+00
0.19356211E+00
0.15309115E+00
0.12759236E+00
0.10810010E+00
0.92360966E-01
0.78216061E-01
0.64927109E-01
0.53507835E-01
0.43677401E-01
0.35184737E-01
0.28339922E-01
0.22871595E-01
0.18334188E-01
0.14682414E-01
0.11812537E-01
0.95024724E-02
0.76528783E-02
0.62006209E-02
0.50185486E-02
0.40782583E-02
0.33304109E-02
0.27176030E-02
0.22273096E-02
0.18318309E-02
0.15093209E-02
0.12435506E-02
0.10257501E-02
0.84797217E-03
0.70425891E-03
0.58499834E-03
0.48672428E-03
0.40572646E-03
0.33836142E-03
0.28381019E-03
0.23821720E-03
0.19938131E-03
0.16745503E-03
0.14134868E-03
0.11922785E-03
0.10073202E-03
0.85208572E-04
0.72092836E-04
0.61257342E-04
0.52200827E-04
0.44523360E-04
0.38020800E-04
0.32484157E-04
0.27790778E-04
0.23805211E-04
0.20438833E-04
0.17566039E-04
0.15111811E-04
0.13026661E-04
0.11247229E-04
0.97266902E-05
0.84375442E-05
0.73123169E-05
0.63379293E-05
0.55278783E-05
0.48204220E-05
0.42211136E-05
0.37077571E-05
0.32565965E-05
0.28486447E-05
0.24929896E-05
0.21845144E-05
0.19165650E-05
0.16801451E-05
0.14732531E-05
0.12938524E-05
0.11241401E-05
0.97106749E-06
0.84027238E-06
0.72551899E-06
0.62641732E-06
0.53900027E-06
0.46333528E-06
0.39792130E-06
0.34252534E-06
0.29373447E-06
0.25203096E-06
0.21593181E-06
0.18465012E-06
0.15844833E-06
0.13534954E-06
0.11586253E-06
0.99079131E-07
0.84664983E-07
0.72142093E-07
0.61616994E-07
atomic number =   16
effective nuclear charge =   16
electron count =   14
net charge =    2
basis set = approximate basis set limit (UGBS)      
exchange correlation functional = PW91PW91            
cutoff radius (picometer) =  500
number of shells =  100
prepared by = Thomas A. Manz      
prepared date = July 2010           
magnetization =    2
density in atomic units:
0.28964199E+04
0.61685673E+02
0.20697914E+02
0.12131511E+02
0.64966598E+01
0.34824677E+01
0.17611520E+01
0.86501336E+00
0.47082493E+00
0.29357278E+00
0.21239619E+00
0.17387623E+00
0.14934115E+00
0.12987699E+00
0.11344479E+00
0.98083474E-01
0.83167247E-01
0.69962569E-01
0.58275983E-01
0.47913536E-01
0.39346240E-01
0.32335136E-01
0.26381359E-01
0.21480292E-01
0.17546179E-01
0.14315316E-01
0.11679663E-01
0.95737018E-02
0.78320252E-02
0.64259293E-02
0.52928333E-02
0.43526762E-02
0.35923191E-02
0.29727693E-02
0.24628527E-02
0.20392607E-02
0.16894331E-02
0.14021845E-02
0.11684692E-02
0.97342074E-03
0.81191550E-03
0.67815662E-03
0.56645717E-03
0.47570775E-03
0.39965604E-03
0.33463084E-03
0.28104035E-03
0.23715096E-03
0.19983314E-03
0.16858631E-03
0.14240436E-03
0.12028630E-03
0.10196726E-03
0.86663924E-04
0.73704512E-04
0.62706611E-04
0.53364442E-04
0.45471115E-04
0.38782222E-04
0.33134464E-04
0.28328743E-04
0.24224195E-04
0.20746313E-04
0.17769105E-04
0.15208442E-04
0.13048782E-04
0.11203048E-04
0.96165440E-05
0.82574052E-05
0.70977180E-05
0.61039282E-05
0.52579958E-05
0.45227375E-05
0.38908888E-05
0.33512397E-05
0.28940556E-05
0.24962446E-05
0.21568740E-05
0.18635350E-05
0.16116727E-05
0.13907608E-05
0.11993556E-05
0.10329421E-05
0.88903766E-06
0.76717515E-06
0.66271735E-06
0.57173850E-06
0.49347631E-06
0.42604964E-06
0.36669357E-06
0.31574589E-06
0.27259088E-06
0.23384521E-06
0.20169351E-06
0.17329678E-06
0.14858144E-06
0.12793794E-06
0.10994498E-06
0.94024109E-07
0.80734232E-07
atomic number =   16
effective nuclear charge =   16
electron count =   15
net charge =    1
basis set = approximate basis set limit (UGBS)      
exchange correlation functional = PW91PW91            
cutoff radius (picometer) =  500
number of shells =  100
prepared by = Thomas A. Manz      
prepared date = July 2010           
magnetization =    3
density in atomic units:
0.28946599E+04
0.61822411E+02
0.20774801E+02
0.12158529E+02
0.65046182E+01
0.34852383E+01
0.17639123E+01
0.87056530E+00
0.48001298E+00
0.30636287E+00
0.22815661E+00
0.19167510E+00
0.16840960E+00
0.14943378E+00
0.13281237E+00
0.11674823E+00
0.10070104E+00
0.86126365E-01
0.72914302E-01
0.60927920E-01
0.50796878E-01
0.42328283E-01
0.34991868E-01
0.28835589E-01
0.23803495E-01
0.19602455E-01
0.16122291E-01
0.13303627E-01
0.10943727E-01
0.90189800E-02
0.74534775E-02
0.61451187E-02
0.50798981E-02
0.42078029E-02
0.34870908E-02
0.28866434E-02
0.23895847E-02
0.19807401E-02
0.16477815E-02
0.13698422E-02
0.11397643E-02
0.94933430E-03
0.79054508E-03
0.66174869E-03
0.55401394E-03
0.46207829E-03
0.38650670E-03
0.32475826E-03
0.27241965E-03
0.22874343E-03
0.19222622E-03
0.16150583E-03
0.13617343E-03
0.11512086E-03
0.97348013E-04
0.82347455E-04
0.69641370E-04
0.58960504E-04
0.49974464E-04
0.42415984E-04
0.36026075E-04
0.30624004E-04
0.26063584E-04
0.22181566E-04
0.18872117E-04
0.16100641E-04
0.13729974E-04
0.11681776E-04
0.99529980E-05
0.84791473E-05
0.72343537E-05
0.61821129E-05
0.52837981E-05
0.45036722E-05
0.38360895E-05
0.32709418E-05
0.27887729E-05
0.23765278E-05
0.20202335E-05
0.17232107E-05
0.14730289E-05
0.12570523E-05
0.10732803E-05
0.91596769E-06
0.78274667E-06
0.67060211E-06
0.57336899E-06
0.48997276E-06
0.41942300E-06
0.35746933E-06
0.30591812E-06
0.26145406E-06
0.22294964E-06
0.19054457E-06
0.16274605E-06
0.13877151E-06
0.11853452E-06
0.10102871E-06
0.86143864E-07
0.73343017E-07
atomic number =   16
effective nuclear charge =   16
electron count =   16
net charge =    0
basis set = approximate basis set limit (UGBS)      
exchange correlation functional = PW91PW91            
cutoff radius (picometer) =  500
number of shells =  100
prepared by = Thomas A. Manz      
prepared date = July 2010           
magnetization =    2
density in atomic units:
0.28931201E+04
0.61933445E+02
0.20836079E+02
0.12179734E+02
0.65109172E+01
0.34875886E+01
0.17662143E+01
0.87490356E+00
0.48706609E+00
0.31618816E+00
0.24037236E+00
0.20564033E+00
0.18362620E+00
0.16537179E+00
0.14894238E+00
0.13267156E+00
0.11604930E+00
0.10063792E+00
0.86388454E-01
0.73206373E-01
0.61852451E-01
0.52181561E-01
0.43655656E-01
0.36378246E-01
0.30333152E-01
0.25210133E-01
0.20908551E-01
0.17380685E-01
0.14394695E-01
0.11934609E-01
0.99156462E-02
0.82158158E-02
0.68222480E-02
0.56743510E-02
0.47209221E-02
0.39224140E-02
0.32586763E-02
0.27105261E-02
0.22624035E-02
0.18868700E-02
0.15749716E-02
0.13160300E-02
0.10994296E-02
0.92315447E-03
0.77531411E-03
0.64874353E-03
0.54434256E-03
0.45877174E-03
0.38602520E-03
0.32511415E-03
0.27401728E-03
0.23087653E-03
0.19515582E-03
0.16531443E-03
0.14004922E-03
0.11866781E-03
0.10052131E-03
0.85249230E-04
0.72379269E-04
0.61553634E-04
0.52352338E-04
0.44523098E-04
0.37917598E-04
0.32289012E-04
0.27490281E-04
0.23483042E-04
0.20057125E-04
0.17099395E-04
0.14590309E-04
0.12455570E-04
0.10631588E-04
0.90867161E-05
0.77690202E-05
0.66502748E-05
0.56847384E-05
0.48599286E-05
0.41556391E-05
0.35516634E-05
0.30324968E-05
0.25909487E-05
0.22132599E-05
0.18902801E-05
0.16154929E-05
0.13795932E-05
0.11795261E-05
0.10065820E-05
0.85359153E-06
0.72427611E-06
0.61225330E-06
0.51695542E-06
0.43643951E-06
0.36773923E-06
0.30984279E-06
0.26155575E-06
0.22034806E-06
0.18588545E-06
0.15685600E-06
0.13190200E-06
0.11112292E-06
0.93457160E-07
atomic number =   16
effective nuclear charge =   16
electron count =   17
net charge =   -1
basis set = approximate basis set limit (UGBS)      
exchange correlation functional = PW91PW91            
cutoff radius (picometer) =  500
number of shells =  100
prepared by = Thomas A. Manz      
prepared date = July 2010           
magnetization =    1
density in atomic units:
0.28919900E+04
0.61969234E+02
0.20848356E+02
0.12180451E+02
0.65107999E+01
0.34878492E+01
0.17664856E+01
0.87494785E+00
0.48698476E+00
0.31630135E+00
0.24102008E+00
0.20705670E+00
0.18596029E+00
0.16863091E+00
0.15298460E+00
0.13735636E+00
0.12126002E+00
0.10622112E+00
0.92215501E-01
0.79171397E-01
0.67851640E-01
0.58136217E-01
0.49492322E-01
0.42035710E-01
0.35767522E-01
0.30381128E-01
0.25786960E-01
0.21952718E-01
0.18644003E-01
0.15860222E-01
0.13524211E-01
0.11509847E-01
0.98172696E-02
0.83866036E-02
0.71668029E-02
0.61173914E-02
0.52208933E-02
0.44597639E-02
0.38201988E-02
0.32695066E-02
0.27995731E-02
0.23986553E-02
0.20542138E-02
0.17665289E-02
0.15189938E-02
0.13016957E-02
0.11178795E-02
0.96347369E-03
0.82899054E-03
0.71369210E-03
0.61476050E-03
0.52929111E-03
0.45691821E-03
0.39514649E-03
0.34170380E-03
0.29549902E-03
0.25540695E-03
0.22092448E-03
0.19130581E-03
0.16583953E-03
0.14372720E-03
0.12458871E-03
0.10811057E-03
0.93792252E-04
0.81352671E-04
0.70727365E-04
0.61496372E-04
0.53380350E-04
0.46333214E-04
0.40179453E-04
0.34911976E-04
0.30348618E-04
0.26366632E-04
0.22927568E-04
0.19901341E-04
0.17269273E-04
0.14981541E-04
0.12975193E-04
0.11240890E-04
0.97476768E-05
0.84405210E-05
0.72999992E-05
0.63081379E-05
0.54515649E-05
0.47092990E-05
0.40579066E-05
0.34989237E-05
0.30165832E-05
0.26025480E-05
0.22583272E-05
0.19626134E-05
0.17064409E-05
0.14798669E-05
0.12841219E-05
0.11145142E-05
0.96583335E-06
0.83747727E-06
0.72587534E-06
0.62839979E-06
0.54345355E-06
atomic number =   16
effective nuclear charge =   16
electron count =   18
net charge =   -2
basis set = approximate basis set limit (UGBS)      
exchange correlation functional = PW91PW91            
cutoff radius (picometer) =  500
number of shells =  100
prepared by = Thomas A. Manz      
prepared date = July 2010           
magnetization =    0
density in atomic units:
0.28910601E+04
0.61996788E+02
0.20857185E+02
0.12180515E+02
0.65105743E+01
0.34880209E+01
0.17666124E+01
0.87478697E+00
0.48662481E+00
0.31602409E+00
0.24115823E+00
0.20783079E+00
0.18752420E+00
0.17100777E+00
0.15605676E+00
0.14101492E+00
0.12541622E+00
0.11075414E+00
0.97024605E-01
0.84176131E-01
0.72968595E-01
0.63296840E-01
0.54635324E-01
0.47105215E-01
0.40715639E-01
0.35165738E-01
0.30371463E-01
0.26312536E-01
0.22755753E-01
0.19711431E-01
0.17110849E-01
0.14825096E-01
0.12866797E-01
0.11178853E-01
0.97111780E-02
0.84229959E-02
0.73009767E-02
0.63302456E-02
0.54990565E-02
0.47706114E-02
0.41382397E-02
0.35901158E-02
0.31116595E-02
0.27061137E-02
0.23522165E-02
0.20373152E-02
0.17675787E-02
0.15381421E-02
0.13360173E-02
0.11607542E-02
0.10087005E-02
0.87598944E-03
0.76250831E-03
0.66464732E-03
0.57927327E-03
0.50473306E-03
0.43952570E-03
0.38294488E-03
0.33396561E-03
0.29153284E-03
0.25447199E-03
0.22213778E-03
0.19409982E-03
0.16955545E-03
0.14809544E-03
0.12964323E-03
0.11349064E-03
0.99197990E-04
0.86716020E-04
0.75776406E-04
0.66322173E-04
0.58056878E-04
0.50792063E-04
0.44491226E-04
0.38929604E-04
0.34060336E-04
0.29802091E-04
0.26065143E-04
0.22804947E-04
0.19966041E-04
0.17460659E-04
0.15240355E-04
0.13285708E-04
0.11587605E-04
0.10119375E-04
0.88399247E-05
0.77232226E-05
0.67427495E-05
0.58860205E-05
0.51308566E-05
0.44750896E-05
0.38914091E-05
0.33796052E-05
0.29315211E-05
0.25425218E-05
0.22042836E-05
0.19144147E-05
0.16667057E-05
0.14517749E-05
0.12675181E-05
atomic number =   16
effective nuclear charge =   16
electron count =   19
net charge =   -3
basis set = approximate basis set limit (UGBS)      
exchange correlation functional = PW91PW91            
cutoff radius (picometer) =  500
number of shells =  100
prepared by = Thomas A. Manz      
prepared date = July 2010           
magnetization =    1
density in atomic units:
0.28919500E+04
0.61969872E+02
0.20848862E+02
0.12180871E+02
0.65111852E+01
0.34880147E+01
0.17664152E+01
0.87468535E+00
0.48660997E+00
0.31594408E+00
0.24083203E+00
0.20715323E+00
0.18642958E+00
0.16950826E+00
0.15423854E+00
0.13895811E+00
0.12319613E+00
0.10844944E+00
0.94706476E-01
0.81902422E-01
0.70784397E-01
0.61237674E-01
0.52735873E-01
0.45389641E-01
0.39201796E-01
0.33866096E-01
0.29296530E-01
0.25461987E-01
0.22132285E-01
0.19307492E-01
0.16915001E-01
0.14828314E-01
0.13052632E-01
0.11529407E-01
0.10208510E-01
0.90510268E-02
0.80405856E-02
0.71627344E-02
0.64057871E-02
0.57355324E-02
0.51459055E-02
0.46265502E-02
0.41644438E-02
0.37640878E-02
0.34063719E-02
0.30792265E-02
0.27907831E-02
0.25377590E-02
0.23074967E-02
0.21008828E-02
0.19151140E-02
0.17469218E-02
0.15975109E-02
0.14636924E-02
0.13422607E-02
0.12320009E-02
0.11315130E-02
0.10405146E-02
0.95834356E-03
0.88410213E-03
0.81636227E-03
0.75463037E-03
0.69865957E-03
0.64736552E-03
0.60039107E-03
0.55799272E-03
0.51905785E-03
0.48284052E-03
0.44955729E-03
0.41880188E-03
0.39073898E-03
0.36481969E-03
0.34073630E-03
0.31858330E-03
0.29781548E-03
0.27850864E-03
0.26058112E-03
0.24379739E-03
0.22818153E-03
0.21369620E-03
0.20001004E-03
0.18712120E-03
0.17501437E-03
0.16365807E-03
0.15310658E-03
0.14323964E-03
0.13392468E-03
0.12516169E-03
0.11692203E-03
0.10909807E-03
0.10183149E-03
0.94966876E-04
0.88466040E-04
0.82430852E-04
0.76742042E-04
0.71404414E-04
0.66434863E-04
0.61739622E-04
0.57310008E-04
0.53180367E-04
